TITLE	
DATA TYPE	INFRARED SPECTRUM
ORIGIN	JASCO
OWNER	
DATE	20/01/21
TIME	10:59:54
SPECTROMETER/DATA SYSTEM	
RESOLUTION	
DELTAX	0.964233
XUNITS	1/CM
YUNITS	TRANSMITTANCE
FIRSTX	  399.1927
LASTX	 4000.6047
NPOINTS	    3736
FIRSTY	    95.76181
MAXY	    99.77000
MINY	    86.11848
XYDATA
399.1927	95.7618
400.1569	95.8806
401.1211	96.0042
402.0854	96.1327
403.0496	96.268
404.0138	96.4128
404.9781	96.5692
405.9423	96.738
406.9065	96.9184
407.8708	97.108
408.8350	97.3033
409.7992	97.4929
410.7635	97.6714
411.7277	97.836
412.6919	97.9866
413.6562	98.1247
414.6204	98.2527
415.5846	98.3727
416.5489	98.4864
417.5131	98.5949
418.4773	98.6976
419.4416	98.797
420.4058	98.8915
421.3700	98.9774
422.3343	99.0511
423.2985	99.1105
424.2627	99.1558
425.2270	99.1895
426.1912	99.2159
427.1554	99.2393
428.1197	99.2631
429.0839	99.2883
430.0481	99.3138
431.0124	99.3369
431.9766	99.3549
432.9408	99.3659
433.9051	99.3695
434.8693	99.3661
435.8335	99.3564
436.7978	99.3418
437.7620	99.3238
438.7262	99.3047
439.6905	99.2867
440.6547	99.2712
441.6189	99.2583
442.5832	99.2466
443.5474	99.2332
444.5116	99.215
445.4759	99.1895
446.4401	99.1559
447.4043	99.1151
448.3686	99.0689
449.3328	99.0196
450.2970	98.9685
451.2613	98.9161
452.2255	98.8621
453.1897	98.806
454.1540	98.748
455.1182	98.6882
456.0824	98.6272
457.0467	98.5648
458.0109	98.5005
458.9751	98.4335
459.9394	98.3635
460.9036	98.2915
461.8678	98.2191
462.8321	98.1483
463.7963	98.0808
464.7605	98.0175
465.7248	97.9584
466.6890	97.9033
467.6532	97.8523
468.6175	97.8061
469.5817	97.7652
470.5459	97.7305
471.5102	97.702
472.4744	97.6794
473.4386	97.6618
474.4029	97.6481
475.3671	97.6377
476.3313	97.6303
477.2956	97.6258
478.2598	97.6241
479.2240	97.6251
480.1883	97.6283
481.1525	97.6331
482.1167	97.6391
483.0810	97.6458
484.0452	97.653
485.0094	97.6606
485.9737	97.6683
486.9379	97.6756
487.9021	97.6816
488.8664	97.6855
489.8306	97.6864
490.7948	97.6839
491.7591	97.6785
492.7233	97.6711
493.6875	97.6627
494.6518	97.6543
495.6160	97.6466
496.5802	97.6395
497.5445	97.6327
498.5087	97.6262
499.4729	97.6197
500.4372	97.6137
501.4014	97.6088
502.3656	97.6054
503.3299	97.6036
504.2941	97.6033
505.2583	97.6042
506.2226	97.606
507.1868	97.6091
508.1510	97.6135
509.1153	97.6197
510.0795	97.6277
511.0437	97.6371
512.0080	97.6476
512.9722	97.6593
513.9365	97.6723
514.9007	97.6871
515.8649	97.7045
516.8292	97.7248
517.7934	97.7482
518.7576	97.7738
519.7219	97.8008
520.6861	97.8281
521.6503	97.8551
522.6146	97.8815
523.5788	97.9078
524.5430	97.9345
525.5073	97.9622
526.4715	97.9911
527.4357	98.0209
528.4000	98.0511
529.3642	98.0807
530.3284	98.1087
531.2927	98.1339
532.2569	98.1551
533.2211	98.171
534.1854	98.1803
535.1496	98.1819
536.1138	98.1753
537.0781	98.1603
538.0423	98.1376
539.0065	98.1075
539.9708	98.0706
540.9350	98.027
541.8992	97.9765
542.8635	97.9184
543.8277	97.8522
544.7919	97.7775
545.7562	97.6943
546.7204	97.6031
547.6846	97.5048
548.6489	97.4004
549.6131	97.2911
550.5773	97.1783
551.5416	97.0633
552.5058	96.9475
553.4700	96.8323
554.4343	96.7187
555.3985	96.6079
556.3627	96.5004
557.3270	96.3969
558.2912	96.298
559.2554	96.2046
560.2197	96.1176
561.1839	96.038
562.1481	95.9669
563.1124	95.905
564.0766	95.8527
565.0408	95.8103
566.0051	95.7773
566.9693	95.7534
567.9335	95.738
568.8978	95.7307
569.8620	95.7308
570.8262	95.7379
571.7905	95.7513
572.7547	95.7703
573.7189	95.7943
574.6832	95.8226
575.6474	95.8546
576.6116	95.8896
577.5759	95.9266
578.5401	95.9646
579.5043	96.0021
580.4686	96.0376
581.4328	96.0699
582.3970	96.0981
583.3613	96.1216
584.3255	96.1401
585.2897	96.1534
586.2540	96.1612
587.2182	96.1632
588.1824	96.1591
589.1467	96.1489
590.1109	96.1329
591.0751	96.1116
592.0394	96.0859
593.0036	96.0565
593.9678	96.024
594.9321	95.9892
595.8963	95.953
596.8605	95.9166
597.8248	95.8812
598.7890	95.8484
599.7532	95.8194
600.7175	95.7954
601.6817	95.7771
602.6459	95.7653
603.6102	95.7604
604.5744	95.7628
605.5386	95.7727
606.5029	95.7901
607.4671	95.8148
608.4313	95.8466
609.3956	95.8846
610.3598	95.9283
611.3240	95.9767
612.2883	96.0287
613.2525	96.0833
614.2167	96.1391
615.1810	96.1951
616.1452	96.25
617.1094	96.303
618.0737	96.3533
619.0379	96.4004
620.0021	96.4437
620.9664	96.483
621.9306	96.518
622.8948	96.5488
623.8591	96.5755
624.8233	96.5983
625.7875	96.6174
626.7518	96.6327
627.7160	96.6445
628.6802	96.6528
629.6445	96.658
630.6087	96.661
631.5729	96.6624
632.5372	96.6633
633.5014	96.6643
634.4656	96.6659
635.4299	96.6683
636.3941	96.6717
637.3583	96.6761
638.3226	96.6815
639.2868	96.688
640.2510	96.6957
641.2153	96.7044
642.1795	96.7139
643.1437	96.7243
644.1080	96.7352
645.0722	96.7467
646.0364	96.7585
647.0007	96.7702
647.9649	96.7812
648.9291	96.7909
649.8934	96.7984
650.8576	96.8031
651.8218	96.8052
652.7861	96.8051
653.7503	96.8033
654.7145	96.8
655.6788	96.7955
656.6430	96.7898
657.6072	96.7828
658.5715	96.7743
659.5357	96.7642
660.4999	96.7525
661.4642	96.7392
662.4284	96.7246
663.3926	96.7091
664.3569	96.6933
665.3211	96.6779
666.2853	96.6638
667.2496	96.6521
668.2138	96.6437
669.1780	96.6387
670.1423	96.6367
671.1065	96.6368
672.0707	96.6378
673.0350	96.6392
673.9992	96.6406
674.9634	96.6421
675.9277	96.6437
676.8919	96.6459
677.8561	96.6488
678.8204	96.6529
679.7846	96.6582
680.7488	96.6647
681.7131	96.6721
682.6773	96.6799
683.6415	96.6879
684.6058	96.6958
685.5700	96.7031
686.5342	96.7097
687.4985	96.7157
688.4627	96.7215
689.4269	96.7276
690.3912	96.7347
691.3554	96.743
692.3196	96.7526
693.2839	96.7635
694.2481	96.7758
695.2123	96.7893
696.1766	96.8042
697.1408	96.8203
698.1050	96.8377
699.0693	96.8565
700.0335	96.8768
700.9977	96.8987
701.9620	96.9222
702.9262	96.9472
703.8904	96.9735
704.8547	97.0007
705.8189	97.0286
706.7831	97.057
707.7474	97.0858
708.7116	97.115
709.6758	97.1445
710.6401	97.1743
711.6043	97.2043
712.5685	97.2344
713.5328	97.2643
714.4970	97.2938
715.4612	97.323
716.4255	97.3516
717.3897	97.3795
718.3539	97.4062
719.3182	97.4316
720.2824	97.4553
721.2466	97.4775
722.2109	97.4982
723.1751	97.5178
724.1393	97.5366
725.1036	97.5546
726.0678	97.5718
727.0320	97.5883
727.9963	97.6039
728.9605	97.6187
729.9247	97.6329
730.8890	97.6467
731.8532	97.66
732.8174	97.6727
733.7817	97.6846
734.7459	97.6959
735.7101	97.7065
736.6744	97.717
737.6386	97.7277
738.6028	97.7389
739.5671	97.7508
740.5313	97.7633
741.4955	97.7762
742.4598	97.7893
743.4240	97.8025
744.3882	97.8158
745.3525	97.8293
746.3167	97.8432
747.2809	97.8574
748.2452	97.8718
749.2094	97.8867
750.1736	97.9018
751.1379	97.9174
752.1021	97.9334
753.0663	97.9497
754.0306	97.9662
754.9948	97.9827
755.9590	97.999
756.9233	98.015
757.8875	98.0308
758.8517	98.0464
759.8160	98.0619
760.7802	98.0773
761.7444	98.0928
762.7087	98.1082
763.6729	98.1237
764.6371	98.139
765.6014	98.154
766.5656	98.1687
767.5298	98.1828
768.4941	98.1963
769.4583	98.2093
770.4225	98.222
771.3868	98.2345
772.3510	98.247
773.3152	98.2598
774.2795	98.2728
775.2437	98.2861
776.2079	98.2996
777.1722	98.3131
778.1364	98.3267
779.1006	98.3402
780.0649	98.3536
781.0291	98.3669
781.9933	98.3801
782.9576	98.3935
783.9218	98.4071
784.8860	98.4212
785.8503	98.4359
786.8145	98.4515
787.7787	98.4677
788.7430	98.4847
789.7072	98.5022
790.6714	98.52
791.6357	98.5381
792.5999	98.5565
793.5641	98.575
794.5284	98.5938
795.4926	98.6129
796.4568	98.6325
797.4211	98.6526
798.3853	98.6734
799.3495	98.6948
800.3138	98.7167
801.2780	98.7391
802.2422	98.7619
803.2065	98.785
804.1707	98.8083
805.1349	98.8319
806.0992	98.8558
807.0634	98.8799
808.0276	98.9042
808.9919	98.9288
809.9561	98.9534
810.9203	98.9781
811.8846	99.0025
812.8488	99.0265
813.8130	99.0501
814.7773	99.0731
815.7415	99.0954
816.7057	99.1169
817.6700	99.1376
818.6342	99.1574
819.5984	99.1764
820.5627	99.1944
821.5269	99.2113
822.4911	99.2271
823.4554	99.2416
824.4196	99.2548
825.3839	99.2667
826.3481	99.2774
827.3123	99.287
828.2766	99.2956
829.2408	99.3035
830.2050	99.3105
831.1693	99.3168
832.1335	99.3222
833.0977	99.3268
834.0620	99.3305
835.0262	99.3334
835.9904	99.3353
836.9547	99.3365
837.9189	99.3369
838.8831	99.3366
839.8474	99.3358
840.8116	99.3343
841.7758	99.3322
842.7401	99.3294
843.7043	99.3258
844.6685	99.3214
845.6328	99.316
846.5970	99.3095
847.5612	99.302
848.5255	99.2936
849.4897	99.2844
850.4539	99.2746
851.4182	99.2645
852.3824	99.254
853.3466	99.243
854.3109	99.2314
855.2751	99.2187
856.2393	99.2045
857.2036	99.1886
858.1678	99.1704
859.1320	99.1498
860.0963	99.1265
861.0605	99.1003
862.0247	99.0712
862.9890	99.0392
863.9532	99.0046
864.9174	98.9677
865.8817	98.9289
866.8459	98.8886
867.8101	98.8473
868.7744	98.8053
869.7386	98.7628
870.7028	98.7204
871.6671	98.6785
872.6313	98.6379
873.5955	98.5993
874.5598	98.5639
875.5240	98.5325
876.4882	98.5064
877.4525	98.4864
878.4167	98.4733
879.3809	98.4678
880.3452	98.4702
881.3094	98.4804
882.2736	98.4982
883.2379	98.5229
884.2021	98.5537
885.1663	98.5898
886.1306	98.6304
887.0948	98.6746
888.0590	98.7217
889.0233	98.771
889.9875	98.8221
890.9517	98.874
891.9160	98.9263
892.8802	98.9779
893.8444	99.0281
894.8087	99.0759
895.7729	99.1205
896.7371	99.1614
897.7014	99.198
898.6656	99.2302
899.6298	99.258
900.5941	99.2814
901.5583	99.3009
902.5225	99.3167
903.4868	99.3293
904.4510	99.339
905.4152	99.3461
906.3795	99.351
907.3437	99.354
908.3079	99.3551
909.2722	99.3548
910.2364	99.353
911.2006	99.35
912.1649	99.346
913.1291	99.341
914.0933	99.3351
915.0576	99.3284
916.0218	99.3211
916.9860	99.3132
917.9503	99.3047
918.9145	99.2958
919.8787	99.2865
920.8430	99.2768
921.8072	99.2666
922.7714	99.256
923.7357	99.2448
924.6999	99.2331
925.6641	99.2208
926.6284	99.208
927.5926	99.1946
928.5568	99.1807
929.5211	99.1663
930.4853	99.1516
931.4495	99.1365
932.4138	99.1213
933.3780	99.1057
934.3422	99.0896
935.3065	99.0728
936.2707	99.055
937.2349	99.036
938.1992	99.0157
939.1634	98.9941
940.1276	98.9712
941.0919	98.9469
942.0561	98.9213
943.0203	98.8944
943.9846	98.8661
944.9488	98.8365
945.9130	98.8056
946.8773	98.7735
947.8415	98.7402
948.8057	98.7058
949.7700	98.6705
950.7342	98.6343
951.6984	98.5976
952.6627	98.5606
953.6269	98.5238
954.5911	98.4873
955.5554	98.4513
956.5196	98.4158
957.4838	98.3811
958.4481	98.3472
959.4123	98.3142
960.3765	98.2822
961.3408	98.2513
962.3050	98.2214
963.2692	98.1923
964.2335	98.1639
965.1977	98.1358
966.1619	98.1079
967.1262	98.08
968.0904	98.0517
969.0546	98.0228
970.0189	97.993
970.9831	97.9618
971.9473	97.929
972.9116	97.8944
973.8758	97.8579
974.8400	97.8194
975.8043	97.7787
976.7685	97.7356
977.7327	97.6899
978.6970	97.6413
979.6612	97.5897
980.6254	97.535
981.5897	97.4771
982.5539	97.4162
983.5181	97.3521
984.4824	97.2849
985.4466	97.2145
986.4108	97.1407
987.3751	97.0634
988.3393	96.9824
989.3035	96.8977
990.2678	96.8091
991.2320	96.7165
992.1962	96.6195
993.1605	96.5182
994.1247	96.4122
995.0889	96.3015
996.0532	96.186
997.0174	96.0655
997.9816	95.94
998.9459	95.8094
999.9101	95.6736
1000.8743	95.5326
1001.8386	95.3862
1002.8028	95.2345
1003.7670	95.0775
1004.7313	94.9151
1005.6955	94.7474
1006.6597	94.5746
1007.6240	94.3967
1008.5882	94.2139
1009.5524	94.0264
1010.5167	93.8344
1011.4809	93.6381
1012.4451	93.4378
1013.4094	93.234
1014.3736	93.0269
1015.3378	92.8169
1016.3021	92.6045
1017.2663	92.3901
1018.2305	92.1738
1019.1948	91.9563
1020.1590	91.7377
1021.1232	91.5185
1022.0875	91.2992
1023.0517	91.08
1024.0160	90.8614
1024.9802	90.6437
1025.9445	90.4274
1026.9087	90.2127
1027.8729	90.0002
1028.8372	89.7902
1029.8014	89.5832
1030.7656	89.3795
1031.7299	89.1799
1032.6941	88.9848
1033.6583	88.7951
1034.6226	88.6116
1035.5868	88.4355
1036.5510	88.2679
1037.5153	88.1102
1038.4795	87.9635
1039.4437	87.8292
1040.4080	87.7084
1041.3722	87.6023
1042.3364	87.512
1043.3007	87.4383
1044.2649	87.382
1045.2291	87.3436
1046.1934	87.3236
1047.1576	87.3223
1048.1218	87.3397
1049.0861	87.3757
1050.0503	87.4298
1051.0145	87.5012
1051.9788	87.5888
1052.9430	87.6911
1053.9072	87.8063
1054.8715	87.9325
1055.8357	88.0675
1056.7999	88.209
1057.7642	88.3549
1058.7284	88.503
1059.6926	88.6514
1060.6569	88.7981
1061.6211	88.9417
1062.5853	89.081
1063.5496	89.2148
1064.5138	89.3421
1065.4780	89.4622
1066.4423	89.5741
1067.4065	89.6772
1068.3707	89.7711
1069.3350	89.8556
1070.2992	89.9308
1071.2634	89.997
1072.2277	90.0546
1073.1919	90.1044
1074.1561	90.1471
1075.1204	90.1839
1076.0846	90.2157
1077.0488	90.2436
1078.0131	90.2686
1078.9773	90.2917
1079.9415	90.3136
1080.9058	90.3348
1081.8700	90.3561
1082.8342	90.3779
1083.7985	90.4008
1084.7627	90.4255
1085.7269	90.4528
1086.6912	90.4832
1087.6554	90.5173
1088.6196	90.5557
1089.5839	90.5987
1090.5481	90.6465
1091.5123	90.6994
1092.4766	90.7574
1093.4408	90.8203
1094.4050	90.8877
1095.3693	90.9594
1096.3335	91.035
1097.2977	91.1141
1098.2620	91.1963
1099.2262	91.2813
1100.1904	91.3689
1101.1547	91.4586
1102.1189	91.55
1103.0831	91.6429
1104.0474	91.7368
1105.0116	91.8313
1105.9758	91.9262
1106.9401	92.0211
1107.9043	92.1159
1108.8685	92.2103
1109.8328	92.3043
1110.7970	92.3979
1111.7612	92.4913
1112.7255	92.5846
1113.6897	92.6781
1114.6539	92.7719
1115.6182	92.8661
1116.5824	92.9609
1117.5466	93.0563
1118.5109	93.1524
1119.4751	93.2493
1120.4393	93.3472
1121.4036	93.446
1122.3678	93.5456
1123.3320	93.6461
1124.2963	93.7473
1125.2605	93.8491
1126.2247	93.9512
1127.1890	94.0534
1128.1532	94.1555
1129.1174	94.2571
1130.0817	94.3578
1131.0459	94.4574
1132.0101	94.5556
1132.9744	94.6522
1133.9386	94.7469
1134.9028	94.8394
1135.8671	94.9296
1136.8313	95.0172
1137.7955	95.102
1138.7598	95.1838
1139.7240	95.2623
1140.6882	95.3376
1141.6525	95.4096
1142.6167	95.4782
1143.5809	95.5436
1144.5452	95.6058
1145.5094	95.6652
1146.4736	95.7218
1147.4379	95.7759
1148.4021	95.8277
1149.3663	95.8774
1150.3306	95.9252
1151.2948	95.9711
1152.2590	96.0154
1153.2233	96.0581
1154.1875	96.0996
1155.1517	96.14
1156.1160	96.1795
1157.0802	96.2183
1158.0444	96.2566
1159.0087	96.2946
1159.9729	96.3325
1160.9371	96.3705
1161.9014	96.4088
1162.8656	96.4473
1163.8298	96.4861
1164.7941	96.5251
1165.7583	96.5642
1166.7225	96.6034
1167.6868	96.6427
1168.6510	96.6821
1169.6152	96.7216
1170.5795	96.7614
1171.5437	96.8014
1172.5079	96.8416
1173.4722	96.882
1174.4364	96.9226
1175.4006	96.9634
1176.3649	97.0041
1177.3291	97.0447
1178.2933	97.0851
1179.2576	97.1249
1180.2218	97.1642
1181.1860	97.2027
1182.1503	97.2403
1183.1145	97.2772
1184.0787	97.3132
1185.0430	97.3485
1186.0072	97.3829
1186.9714	97.4165
1187.9357	97.449
1188.8999	97.4803
1189.8641	97.5103
1190.8284	97.5387
1191.7926	97.5655
1192.7568	97.5907
1193.7211	97.6142
1194.6853	97.6362
1195.6495	97.6567
1196.6138	97.676
1197.5780	97.6941
1198.5422	97.7113
1199.5065	97.7275
1200.4707	97.7429
1201.4349	97.7574
1202.3992	97.7712
1203.3634	97.7841
1204.3276	97.7962
1205.2919	97.8075
1206.2561	97.8181
1207.2203	97.8281
1208.1846	97.8375
1209.1488	97.8465
1210.1130	97.8552
1211.0773	97.8634
1212.0415	97.8713
1213.0057	97.8788
1213.9700	97.8857
1214.9342	97.892
1215.8984	97.8976
1216.8627	97.9025
1217.8269	97.9068
1218.7911	97.9103
1219.7554	97.9131
1220.7196	97.9154
1221.6838	97.9171
1222.6481	97.9185
1223.6123	97.9195
1224.5765	97.9203
1225.5408	97.9209
1226.5050	97.9216
1227.4692	97.9224
1228.4335	97.9234
1229.3977	97.9247
1230.3619	97.9263
1231.3262	97.9284
1232.2904	97.9309
1233.2546	97.934
1234.2189	97.9376
1235.1831	97.9417
1236.1473	97.9464
1237.1116	97.9515
1238.0758	97.957
1239.0400	97.9627
1240.0043	97.9686
1240.9685	97.9745
1241.9327	97.9804
1242.8970	97.986
1243.8612	97.9915
1244.8254	97.9965
1245.7897	98.0011
1246.7539	98.0051
1247.7181	98.0085
1248.6824	98.0112
1249.6466	98.0131
1250.6108	98.0142
1251.5751	98.0143
1252.5393	98.0135
1253.5035	98.0117
1254.4678	98.009
1255.4320	98.0056
1256.3962	98.0014
1257.3605	97.9966
1258.3247	97.9913
1259.2889	97.9857
1260.2532	97.9797
1261.2174	97.9735
1262.1816	97.9672
1263.1459	97.9607
1264.1101	97.9542
1265.0743	97.9478
1266.0386	97.9415
1267.0028	97.9355
1267.9670	97.9299
1268.9313	97.9247
1269.8955	97.9202
1270.8597	97.9164
1271.8240	97.9134
1272.7882	97.9113
1273.7524	97.9099
1274.7167	97.9092
1275.6809	97.9092
1276.6451	97.9097
1277.6094	97.9107
1278.5736	97.912
1279.5378	97.9137
1280.5021	97.9156
1281.4663	97.9177
1282.4305	97.9199
1283.3948	97.922
1284.3590	97.924
1285.3232	97.9256
1286.2875	97.9269
1287.2517	97.9277
1288.2159	97.9278
1289.1802	97.927
1290.1444	97.9253
1291.1086	97.9223
1292.0729	97.918
1293.0371	97.9124
1294.0013	97.9053
1294.9656	97.897
1295.9298	97.8874
1296.8940	97.8766
1297.8583	97.8647
1298.8225	97.8515
1299.7867	97.8372
1300.7510	97.8219
1301.7152	97.8056
1302.6794	97.7887
1303.6437	97.7713
1304.6079	97.7538
1305.5721	97.7363
1306.5364	97.7191
1307.5006	97.7024
1308.4648	97.6864
1309.4291	97.6715
1310.3933	97.6578
1311.3575	97.6456
1312.3218	97.6349
1313.2860	97.6259
1314.2502	97.6186
1315.2145	97.6129
1316.1787	97.6088
1317.1429	97.6063
1318.1072	97.6052
1319.0714	97.6053
1320.0356	97.6063
1320.9999	97.6078
1321.9641	97.6097
1322.9283	97.6119
1323.8926	97.6142
1324.8568	97.6167
1325.8210	97.6193
1326.7853	97.6221
1327.7495	97.6248
1328.7137	97.6274
1329.6780	97.6297
1330.6422	97.6316
1331.6064	97.633
1332.5707	97.6338
1333.5349	97.6341
1334.4991	97.6338
1335.4634	97.6332
1336.4276	97.6325
1337.3918	97.632
1338.3561	97.6322
1339.3203	97.633
1340.2845	97.6344
1341.2488	97.6359
1342.2130	97.6368
1343.1772	97.6367
1344.1415	97.6351
1345.1057	97.6318
1346.0699	97.627
1347.0342	97.6208
1347.9984	97.6133
1348.9626	97.6044
1349.9269	97.5942
1350.8911	97.5826
1351.8553	97.5695
1352.8196	97.5548
1353.7838	97.5381
1354.7480	97.5194
1355.7123	97.4984
1356.6765	97.4749
1357.6407	97.449
1358.6050	97.4211
1359.5692	97.3917
1360.5334	97.3614
1361.4977	97.3309
1362.4619	97.3002
1363.4261	97.2694
1364.3904	97.2378
1365.3546	97.2051
1366.3188	97.1706
1367.2831	97.1343
1368.2473	97.0964
1369.2115	97.0573
1370.1758	97.0178
1371.1400	96.9786
1372.1042	96.9403
1373.0685	96.9033
1374.0327	96.8678
1374.9969	96.8336
1375.9612	96.8006
1376.9254	96.7683
1377.8896	96.7364
1378.8539	96.705
1379.8181	96.674
1380.7823	96.6439
1381.7466	96.6153
1382.7108	96.589
1383.6750	96.5658
1384.6393	96.5464
1385.6035	96.531
1386.5677	96.5193
1387.5320	96.5107
1388.4962	96.5043
1389.4604	96.499
1390.4247	96.4944
1391.3889	96.4899
1392.3531	96.4858
1393.3174	96.4822
1394.2816	96.4796
1395.2458	96.4784
1396.2101	96.4784
1397.1743	96.4796
1398.1385	96.4811
1399.1028	96.4824
1400.0670	96.4827
1401.0313	96.4817
1401.9955	96.4792
1402.9597	96.4755
1403.9240	96.4706
1404.8882	96.4649
1405.8524	96.4586
1406.8167	96.4521
1407.7809	96.4455
1408.7451	96.4391
1409.7094	96.433
1410.6736	96.4272
1411.6378	96.4215
1412.6021	96.4161
1413.5663	96.4107
1414.5305	96.4057
1415.4948	96.4014
1416.4590	96.3985
1417.4232	96.3974
1418.3875	96.3988
1419.3517	96.4028
1420.3159	96.4093
1421.2802	96.4179
1422.2444	96.4282
1423.2086	96.4401
1424.1729	96.4533
1425.1371	96.4678
1426.1013	96.4834
1427.0656	96.4998
1428.0298	96.5166
1428.9940	96.5337
1429.9583	96.5506
1430.9225	96.5671
1431.8867	96.5831
1432.8510	96.5984
1433.8152	96.6129
1434.7794	96.6262
